File: data/raman.txt
# nanotube RBM modes
# 22/7/2007
,1.89RBM,1.90RBM,1.91RBM,1.92RBM,1.93RBM
125.2566,0.26426,0.28273,0.25838,0.172546,0.22826
127.0766,0.28886,0.324568,0.246541,0.178981,0.23754
129.2666,0.28981,0.319417,0.265564,0.183679,0.22567
131.4566,0.29445,0.307899,0.251212,0.166475,0.221282
133.2766,0.26605,0.2792,0.248221,0.167925,0.228706
135.4566,0.26658,0.283335,0.234415,0.162988,0.216004
137.6466,0.24831,0.269375,0.238769,0.164051,0.205058
139.4666,0.25866,0.256123,0.229733,0.163918,0.210668
141.6466,0.25919,0.265369,0.194801,0.153982,0.200733
143.8366,0.25286,0.248755,0.206473,0.145261,0.214474
145.6566,0.25539,0.225515,0.213229,0.154579,0.211541
147.8366,0.25169,0.233198,0.212943,0.168768,0.210279
150.0166,0.23923,0.254949,0.215842,0.191221,0.22376
152.0166,0.23227,0.244464,0.251131,0.181582,0.206835
154.0166,0.2367,0.289446,0.237653,0.174727,0.190836
156.1966,0.27006,0.27216,0.235289,0.14656,0.200664
158.3766,0.25011,0.273279,0.211563,0.173896,0.236041
160.1966,0.22868,0.227185,0.25572,0.179506,0.229638
162.3666,0.22076,0.277117,0.233482,0.187186,0.227773
164.5466,0.27703,0.273127,0.267605,0.192955,0.245082
166.3666,0.25909,0.282021,0.246041,0.21229,0.242401
168.5366,0.25286,0.291862,0.276393,0.202474,0.257621
170.7166,0.26816,0.309472,0.286794,0.235812,0.256878
172.5266,0.30945,0.350106,0.350901,0.279392,0.285037
174.7066,0.39613,0.450009,0.397953,0.316649,0.323592
176.8766,0.37818,0.422204,0.418945,0.293732,0.302567
178.6666,0.32381,0.364986,0.335607,0.241934,0.35157
180.8366,0.28453,0.336475,0.34981,0.32369,0.467658
183.0066,0.21305,0.353572,0.431507,0.420328,0.614032
184.9966,0.31926,0.36457,0.440322,0.427795,0.562772
186.9866,0.34028,0.410582,0.421219,0.406967,0.59066
189.1666,0.33141,0.39846,0.468273,0.50142,0.763477
191.3366,0.32813,0.402649,0.50494,0.581795,0.831443
193.1166,0.33109,0.451456,0.617578,0.71045,1.13091
195.2866,0.38346,0.552421,0.770227,0.934093,1.40395
197.4566,0.38399,0.571831,0.81707,0.857994,1.14592
199.2566,0.32982,0.475678,0.622392,0.613895,0.838103
201.4066,0.27851,0.371371,0.494879,0.439974,0.483093
203.5766,0.22002,0.294529,0.311678,0.258904,0.308634
205.3766,0.16575,0.203703,0.206443,0.174238,0.206285
207.5466,0.11898,0.14831,0.14317,0.0990025,0.1421556
209.6866,0.08171,0.0984618,0.118935,0.073217,0.108377
218.3166,0.01139,0.0415212,0.0257543,0.0176036,0.0140793
220.4766,-0.00149,0.0333781,0.01196,-0.00251451,0.0107414
222.6166,-0.00561,0.0199454,0.0413007,-0.0165269,-0.0091778
224.5966,0.0399,0.0409612,0.00680372,-0.0269775,-0.02035
226.5766,0.10483,0.0864782,0.0320975,-0.02943,-0.0227327
228.7066,0.13682,0.0993857,0.0460038,-0.0217847,-0.0293066
230.8666,0.07844,0.0599078,-0.0135305,-0.0500155,-0.0188878
232.6666,0.02945,0.00988538,-0.0231238,-0.0485873,-0.0285292
234.8066,0.02691,0.01278,-0.00176354,-0.051536,-0.0269777
236.9566,0.00358,-0.0236521,-0.0542921,-0.0435879,-0.0453265
238.7366,0.00125,-0.0292479,-0.0507282,-0.0441983,-0.0660684
240.8866,-0.01807,-0.0587982,-0.088971,-0.0935027,-0.0519608
243.0266,-0.04098,-0.0194702,-0.0498511,-0.0502902,-0.0547838
244.8166,-0.05502,-0.0326308,-0.0230253,-0.037587,-0.04289
246.9466,-0.0377,-0.0224974,-0.01936,-0.03136,-0.0373614
249.1066,-0.02208,-0.0169833,-0.0182806,-0.001736,0.0275539
250.8966,-0.00159,0.0326034,0.0502514,0.048333,0.144021
253.0266,0.02533,0.0951577,0.0982885,0.112882,0.198168
255.1566,0.00801,0.0846462,0.0847106,0.0700607,0.112736
257.3066,0.04613,0.0708485,0.0391696,0.0318326,0.0458294
259.0766,0.02638,0.0569213,0.0060841,0.0336676,0.0838332
261.2266,0.08752,0.0894346,0.121556,0.148147,0.210451
263.3566,0.23776,0.306776,0.405986,0.377444,0.464147
265.1466,0.2272,0.347671,0.401231,0.356731,0.39138
267.2666,0.13967,0.20718,0.2563,0.2109,0.171729
269.4166,0.07368,0.117747,0.110574,0.0936711,0.0621552
271.1866,0.04475,0.0711431,0.076437,0.0548257,0.0295431
273.3066,0.04359,0.0681142,0.05908,0.04932,0.0641077
275.4566,0.06133,0.115608,0.148344,0.130291,0.203119
277.2166,0.16691,0.22038,0.305494,0.353351,0.444927
279.3666,0.36551,0.485576,0.727745,0.923475,1.00612
281.4866,0.74211,1.08321,1.59572,1.74747,2.43977
283.4266,1.15219,1.72444,2.42988,2.44324,3.1078
285.3966,0.75025,1.14912,1.49275,1.53263,1.8791
287.5166,0.40975,0.624348,0.764322,0.804243,0.763153
289.6266,0.27988,0.341245,0.390599,0.420126,0.334576
291.4166,0.35886,0.379462,0.373951,0.325415,0.212713
293.5366,0.80905,0.71149,0.620822,0.492334,0.242145
295.6466,3.53357,2.80442,2.28011,1.22516,0.875796
297.4166,5.21316,4.72131,3.32289,1.65116,0.901205
299.5466,2.65103,2.69677,1.72115,0.937549,0.38275
301.6666,0.96046,0.914728,0.557198,0.283969,0.0511429
303.4266,0.4882,0.457585,0.286399,0.132753,-0.00714877
305.5366,0.34197,0.281962,0.16567,0.0811379,-0.028057
307.6566,0.18708,0.158845,0.055836,0.0303242,-0.0796141
309.4366,0.11539,0.0912387,0.0311808,0.00308634,-0.117808
311.5466,0.05658,0.0371203,-0.0150188,-0.0383384,-0.14481
313.6566,0.00305,0.0103915,-0.0305854,-0.0519407,-0.165819
315.5966,-0.02662,-0.0186472,-0.0392487,-0.0567987,-0.187815
317.5266,-0.03274,-0.0431827,-0.0654807,-0.0800497,-0.195059
319.6666,-0.05913,-0.0741069,-0.102451,-0.113171,-0.219067
321.7766,-0.08796,-0.0840715,-0.0969801,-0.122544,-0.225115
323.5266,-0.085,-0.101421,-0.122885,-0.13637,-0.220684
325.6366,-0.1265,-0.0878906,-0.118047,-0.14228,-0.24335
327.7466,-0.11024,-0.12507,-0.132763,-0.124376,-0.222297
329.4966,-0.17253,-0.150957,-0.161699,-0.138818,-0.251012
331.6066,-0.15585,-0.14891,-0.1621,-0.137618,-0.230804
333.7166,-0.17475,-0.164142,-0.156688,-0.150729,-0.25816
335.4666,-0.16978,-0.150603,-0.14368,-0.187711,-0.260615
337.5666,-0.21381,-0.155477,-0.15795,-0.16676,-0.275375
339.6766,-0.23704,-0.191773,-0.188266,-0.170448,-0.284032
341.4466,-0.22986,-0.207596,-0.222016,-0.212599,-0.305052
343.5466,-0.27536,-0.240438,-0.23976,-0.215576,-0.301858
345.6566,-0.2269,-0.245841,-0.248181,-0.224912,-0.306829
347.7366,-0.27199,-0.270233,-0.272044,-0.260069,-0.338678
349.5066,-0.27378,-0.251455,-0.264706,-0.239029,-0.319418
351.5866,-0.29205,-0.280506,-0.279956,-0.22163,-0.319857
353.6866,-0.29025,-0.275584,-0.262068,-0.215035,-0.314067
355.4366,-0.31876,-0.275363,-0.250084,-0.202827,-0.302725
357.5366,-0.29807,-0.275956,-0.265744,-0.240989,-0.320643
359.6366,-0.278,-0.282825,-0.257558,-0.201909,-0.312163
361.3766,-0.28803,-0.284377,-0.265469,-0.199034,-0.284967
363.4766,-0.26523,-0.25262,-0.22751,-0.148122,-0.282608
365.5766,-0.30366,-0.268614,-0.252306,-0.20199,-0.307757
367.3166,-0.34441,-0.293512,-0.262043,-0.212393,-0.30393
369.4166,-0.30746,-0.325621,-0.283268,-0.216211,-0.313084
371.5166,-0.32573,-0.33305,-0.288295,-0.211377,-0.294382
373.4366,-0.33048,-0.303813,-0.254736,-0.199869,-0.303145
375.3266,-0.29722,-0.26441,-0.235491,-0.184172,-0.298452
377.4266,-0.2646,-0.256137,-0.252463,-0.19933,-0.29153
379.5166,-0.28159,-0.258402,-0.254149,-0.190373,-0.289095
381.2566,-0.28824,-0.280527,-0.272912,-0.2118482,-0.295387
383.3466,-0.27864,-0.288405,-0.275038,-0.213364,-0.286772
385.4266,-0.27875,-0.282796,-0.285281,-0.197267,-0.277943
387.1566,-0.29986,-0.28282,-0.27206,-0.176598,-0.278943
389.2566,-0.31358,-0.304502,-0.27895,-0.183262,-0.272417
391.3466,-0.32657,-0.331013,-0.264107,-0.177072,-0.265497
393.0766,-0.34019,-0.314467,-0.27928,-0.182436,-0.278314
395.1466,-0.37208,-0.355369,-0.285318,-0.203886,-0.291746
397.2366,-0.38316,-0.358737,-0.312172,-0.21885,-0.29323
398.9766,-0.35708,-0.368046,-0.313986,-0.219244,-0.309986
401.0366,-0.37366,-0.361102,-0.300107,-0.209717,-0.31961
403.1266,-0.37936,-0.368468,-0.305861,-0.201656,-0.299792
405.0366,-0.39045,-0.37626,-0.310864,-0.196565,-0.307243
406.9266,-0.3819,-0.410128,-0.332788,-0.22455,-0.315241
409.0166,-0.40269,-0.416508,-0.34487,-0.222014,-0.317827
411.0766,-0.41705,-0.417035,-0.372258,-0.221137,-0.311518
412.8066,-0.40217,-0.416004,-0.364109,-0.242327,-0.328344
414.8966,-0.38981,-0.413147,-0.36789,-0.24669,-0.333933
416.9566,-0.399,-0.440295,-0.368689,-0.232965,-0.319615
418.6866,-0.40745,-0.426831,-0.376791,-0.236391,-0.335091
420.7666,-0.39129,-0.429125,-0.366466,-0.249569,-0.33196
422.8266,-0.44525,-0.43647,-0.365991,-0.2261,-0.321407
424.5566,-0.382,-0.431885,-0.382876,-0.231257,-0.313926
426.6166,-0.41188,-0.434488,-0.37001,-0.252498,-0.332759
428.6966,-0.42487,-0.429524,-0.371114,-0.250294,-0.325252
430.6066,-0.41917,-0.429611,-0.372015,-0.248404,-0.321306
432.4866,-0.44091,-0.41324,-0.368322,-0.274388,-0.344041
434.5466,-0.43638,-0.409636,-0.410374,-0.266294,-0.341561
436.6166,-0.51039,-0.416633,-0.378295,-0.318878,-0.357492
438.3466,-0.47006,-0.419012,-0.356522,-0.287368,-0.352479
440.4066,-0.45918,-0.444695,-0.34951,-0.290349,-0.359459
442.4566,-0.45179,-0.448456,-0.368489,-0.268287,-0.347487
444.1866,-0.46721,-0.464401,-0.384536,-0.284471,-0.361569
446.2366,-0.48473,-0.470277,-0.390952,-0.294379,-0.367251
448.3166,-0.47016,-0.467096,-0.39416,-0.297405,-0.365614
450.0166,-0.48758,-0.466906,-0.386562,-0.29933,-0.371918
452.0866,-0.48473,-0.47312,-0.404135,-0.30683,-0.369251
454.1366,-0.48917,-0.479568,-0.396765,-0.29132,-0.360247
455.8366,-0.49761,-0.470036,-0.39991,-0.295214,-0.36911
457.9166,-0.48832,-0.469042,-0.401019,-0.300373,-0.35837
459.9666,-0.50321,-0.49528,-0.428976,-0.296371,-0.360979
461.8366,-0.50532,-0.502141,-0.423558,-0.3181,-0.359459
463.7366,-0.51282,-0.50112,-0.426744,-0.291385,-0.348544
465.7766,-0.503,-0.492767,-0.416828,-0.314189,-0.358403
467.8266,-0.51989,-0.506028,-0.406098,-0.30475,-0.355772
468.1766,-0.51989,-0.507336,-0.415719,-0.289449,-0.357938